Start Date: 5/18/2022
Start Time: 10:49:7
Test system information: GeneralPhotonics,PSY-201,V1.3-20141120, 155000000131
SOP sampling rate: 10000.0000sps
Integration time: 1.0000us
Scrambler DOP Average Number: 1 
Wavelength: 1550nm 
Time Interval(ms): 10.0000
Calibration matrix: DEFAULT MATRIX
Total sampling numbers: 1000

--Time(ms)--S0(mW)--S1--S2--S3--DOP(%)--Average DOP(%)--
1.50000	0.08617	0.76687	-0.57189	-0.29167	98.61755	98.61755
3.10000	0.08627	0.76714	-0.57170	-0.29109	98.44666	98.44666
0.50000	0.08613	0.76681	-0.57173	-0.29203	98.58398	98.58398
2.10000	0.08579	0.76632	-0.57247	-0.29197	98.78540	98.78540
3.70000	0.08626	0.76659	-0.57195	-0.29221	98.59619	98.59619
1.10000	0.08604	0.76678	-0.57183	-0.29194	98.59314	98.59314
2.70000	0.08575	0.76675	-0.57183	-0.29215	98.72131	98.72131
0.10000	0.08595	0.76705	-0.57121	-0.29237	98.60535	98.60535
1.70000	0.08620	0.76669	-0.57161	-0.29240	98.54736	98.54736
3.30000	0.08578	0.76733	-0.57018	-0.29350	98.62671	98.62671
0.70000	0.08600	0.76720	-0.57125	-0.29197	98.66943	98.66943
2.30000	0.08611	0.76684	-0.57167	-0.29206	98.67249	98.67249
3.90000	0.08607	0.76684	-0.57121	-0.29298	98.55957	98.55957
1.30000	0.08617	0.76702	-0.57131	-0.29225	98.53210	98.53210
2.90000	0.08649	0.76730	-0.57079	-0.29252	98.57483	98.57483
0.30000	0.08621	0.76748	-0.57039	-0.29283	98.61755	98.61755
1.90000	0.08630	0.76733	-0.57079	-0.29246	98.51685	98.51685
3.50000	0.08649	0.76775	-0.57070	-0.29160	98.52905	98.52905
0.90000	0.08673	0.76730	-0.57042	-0.29325	98.65112	98.65112
2.50000	0.08658	0.76720	-0.57048	-0.29316	98.70300	98.70300
4.10000	0.08701	0.76678	-0.57146	-0.29267	98.53821	98.53821
1.50000	0.08705	0.76724	-0.57106	-0.29203	98.59924	98.59924
3.10000	0.08701	0.76745	-0.57085	-0.29209	98.46802	98.46802
0.50000	0.08697	0.76693	-0.57106	-0.29276	98.60840	98.60840
2.10000	0.08699	0.76696	-0.57109	-0.29276	98.62976	98.62976
3.70000	0.08680	0.76745	-0.57076	-0.29221	98.55042	98.55042
1.10000	0.08684	0.76720	-0.57112	-0.29240	98.62061	98.62061
2.70000	0.08697	0.76687	-0.57121	-0.29298	98.69080	98.69080
0.10000	0.08684	0.76775	-0.57060	-0.29176	98.51990	98.51990
1.70000	0.08713	0.76748	-0.57042	-0.29289	98.47717	98.47717
3.30000	0.08695	0.76720	-0.57091	-0.29246	98.62976	98.62976
0.70000	0.08697	0.76730	-0.57088	-0.29249	98.59009	98.59009
2.30000	0.08686	0.76742	-0.57054	-0.29286	98.49548	98.49548
3.90000	0.08699	0.76754	-0.57070	-0.29200	98.67859	98.67859
1.30000	0.08695	0.76788	-0.56966	-0.29307	98.61450	98.61450
2.90000	0.08695	0.76797	-0.56996	-0.29258	98.53516	98.53516
0.30000	0.08707	0.76666	-0.57146	-0.29304	98.53210	98.53210
1.90000	0.08716	0.76745	-0.57088	-0.29218	98.64197	98.64197
3.50000	0.08671	0.76736	-0.57045	-0.29292	98.55652	98.55652
0.90000	0.08682	0.76751	-0.57064	-0.29228	98.51074	98.51074
2.50000	0.08682	0.76763	-0.57012	-0.29298	98.68164	98.68164
4.10000	0.08676	0.76730	-0.57064	-0.29261	98.58093	98.58093
1.50000	0.08650	0.76775	-0.57033	-0.29240	98.57483	98.57483
3.10000	0.08676	0.76760	-0.57015	-0.29286	98.58093	98.58093
0.50000	0.08641	0.76800	-0.56993	-0.29237	98.66028	98.66028
2.10000	0.08654	0.76742	-0.57091	-0.29203	98.53821	98.53821
3.70000	0.08623	0.76797	-0.57018	-0.29182	98.53210	98.53210
1.10000	0.08614	0.76711	-0.57076	-0.29313	98.66333	98.66333
2.70000	0.08608	0.76717	-0.57112	-0.29215	98.67859	98.67859
0.10000	0.08623	0.76736	-0.57057	-0.29310	98.57788	98.57788
1.70000	0.08604	0.76785	-0.56969	-0.29310	98.62976	98.62976
3.30000	0.08602	0.76791	-0.56923	-0.29408	98.69385	98.69385
0.70000	0.08611	0.76812	-0.56938	-0.29313	98.52905	98.52905
2.30000	0.08594	0.76720	-0.57100	-0.29234	98.56567	98.56567
3.90000	0.08582	0.76748	-0.57009	-0.29337	98.72131	98.72131
1.30000	0.08611	0.76775	-0.57033	-0.29237	98.58398	98.58398
2.90000	0.08588	0.76815	-0.56978	-0.29221	98.55652	98.55652
0.30000	0.08557	0.76720	-0.57057	-0.29316	98.66333	98.66333
1.90000	0.08569	0.76717	-0.57118	-0.29218	98.63281	98.63281
3.50000	0.08587	0.76766	-0.57021	-0.29279	98.58093	98.58093
0.90000	0.08533	0.76690	-0.57097	-0.29325	98.72131	98.72131
2.50000	0.08559	0.76733	-0.57067	-0.29264	98.57788	98.57788
4.10000	0.08586	0.76727	-0.57054	-0.29322	98.63586	98.63586
1.50000	0.08576	0.76812	-0.56996	-0.29185	98.59619	98.59619
3.10000	0.08557	0.76763	-0.57054	-0.29231	98.60840	98.60840
0.50000	0.08562	0.76678	-0.57106	-0.29337	98.78235	98.78235
2.10000	0.08603	0.76803	-0.56990	-0.29234	98.51990	98.51990
3.70000	0.08554	0.76772	-0.57039	-0.29234	98.62366	98.62366
1.10000	0.08583	0.76757	-0.57027	-0.29298	98.57178	98.57178
2.70000	0.08574	0.76769	-0.57054	-0.29218	98.50769	98.50769
0.10000	0.08573	0.76672	-0.57201	-0.29176	98.68164	98.68164
1.70000	0.08557	0.76766	-0.57060	-0.29188	98.60840	98.60840
3.30000	0.08591	0.76785	-0.57009	-0.29246	98.55042	98.55042
0.70000	0.08561	0.76708	-0.57091	-0.29292	98.62366	98.62366
2.30000	0.08576	0.76739	-0.57091	-0.29206	98.63586	98.63586
3.90000	0.08578	0.76727	-0.57118	-0.29194	98.72131	98.72131
1.30000	0.08564	0.76800	-0.57021	-0.29200	98.64197	98.64197
2.90000	0.08570	0.76818	-0.56963	-0.29258	98.54736	98.54736
0.30000	0.08611	0.76788	-0.57006	-0.29258	98.48328	98.48328
1.90000	0.08559	0.76751	-0.57064	-0.29221	98.58398	98.58398
3.50000	0.08586	0.76794	-0.57012	-0.29209	98.61145	98.61145
0.90000	0.08593	0.76812	-0.57018	-0.29179	98.59009	98.59009
2.50000	0.08600	0.76775	-0.56996	-0.29298	98.66333	98.66333
4.10000	0.08576	0.76763	-0.57091	-0.29154	98.64197	98.64197
1.50000	0.08623	0.76760	-0.57039	-0.29252	98.55652	98.55652
3.10000	0.08600	0.76733	-0.57054	-0.29295	98.62976	98.62976
0.50000	0.08578	0.76763	-0.57048	-0.29218	98.67554	98.67554
2.10000	0.08582	0.76785	-0.57030	-0.29218	98.54736	98.54736
3.70000	0.08601	0.76794	-0.56929	-0.29365	98.69385	98.69385
1.10000	0.08565	0.76772	-0.57045	-0.29218	98.71826	98.71826
2.70000	0.08573	0.76806	-0.57030	-0.29151	98.57788	98.57788
0.10000	0.08588	0.76693	-0.57143	-0.29240	98.67554	98.67554
1.70000	0.08580	0.76812	-0.56948	-0.29283	98.54736	98.54736
3.30000	0.08571	0.76766	-0.57079	-0.29163	98.61145	98.61145
0.70000	0.08560	0.76730	-0.57082	-0.29243	98.54431	98.54431
2.30000	0.08550	0.76699	-0.57158	-0.29191	98.74878	98.74878
3.90000	0.08535	0.76788	-0.57021	-0.29218	98.61145	98.61145
1.30000	0.08529	0.76730	-0.57106	-0.29185	98.68164	98.68164
2.90000	0.08495	0.76730	-0.57106	-0.29215	98.73352	98.73352
0.30000	0.08514	0.76714	-0.57137	-0.29197	98.69690	98.69690
1.90000	0.08507	0.76760	-0.57051	-0.29221	98.55347	98.55347
3.50000	0.08485	0.76730	-0.57064	-0.29276	98.66028	98.66028
0.90000	0.08454	0.76708	-0.57094	-0.29273	98.75793	98.75793
2.50000	0.08494	0.76751	-0.57076	-0.29206	98.61450	98.61450
4.10000	0.08425	0.76730	-0.57106	-0.29218	98.77014	98.77014
1.50000	0.08446	0.76760	-0.57073	-0.29197	98.79761	98.79761
3.10000	0.08425	0.76742	-0.57073	-0.29264	98.61145	98.61145
0.50000	0.08446	0.76754	-0.57021	-0.29289	98.58093	98.58093
2.10000	0.08379	0.76684	-0.57112	-0.29301	98.73047	98.73047
3.70000	0.08411	0.76724	-0.57088	-0.29237	98.69690	98.69690
1.10000	0.08382	0.76714	-0.57149	-0.29163	98.66028	98.66028
2.70000	0.08349	0.76757	-0.57051	-0.29255	98.80066	98.80066
0.10000	0.08311	0.76748	-0.57033	-0.29267	98.80371	98.80371
1.70000	0.08321	0.76720	-0.57140	-0.29163	98.64807	98.64807
3.30000	0.08258	0.76788	-0.57018	-0.29200	98.73657	98.73657
0.70000	0.08214	0.76699	-0.57125	-0.29240	98.75488	98.75488
2.30000	0.08176	0.76742	-0.57103	-0.29188	98.86475	98.86475
3.90000	0.08123	0.76748	-0.57091	-0.29188	98.76709	98.76709
1.30000	0.08063	0.76769	-0.57067	-0.29163	98.67249	98.67249
2.90000	0.08036	0.76769	-0.56999	-0.29307	98.82202	98.82202
0.30000	0.07988	0.76708	-0.57091	-0.29270	98.88000	98.88000
1.90000	0.07939	0.76840	-0.56951	-0.29212	98.70300	98.70300
3.50000	0.07899	0.76757	-0.57079	-0.29176	98.72437	98.72437
0.90000	0.07851	0.76702	-0.57143	-0.29212	98.80981	98.80981
2.50000	0.07770	0.76751	-0.57100	-0.29145	98.91052	98.91052
4.10000	0.07731	0.76772	-0.57039	-0.29221	98.88000	98.88000
1.50000	0.07693	0.76772	-0.57027	-0.29258	98.75793	98.75793
3.10000	0.07615	0.76705	-0.57112	-0.29258	98.88916	98.88916
0.50000	0.07573	0.76788	-0.57045	-0.29191	98.84644	98.84644
2.10000	0.07538	0.76754	-0.57076	-0.29200	98.75183	98.75183
3.70000	0.07444	0.76727	-0.57076	-0.29267	98.99902	98.99902
1.10000	0.07362	0.76720	-0.57082	-0.29273	98.78540	98.78540
2.70000	0.07334	0.76708	-0.57073	-0.29313	98.92883	98.92883
0.10000	0.07219	0.76690	-0.57097	-0.29331	99.03259	99.03259
1.70000	0.07140	0.76736	-0.57045	-0.29295	98.90137	98.90137
3.30000	0.07056	0.76662	-0.57137	-0.29319	98.92578	98.92578
0.70000	0.06979	0.76656	-0.57131	-0.29340	99.02039	99.02039
2.30000	0.06847	0.76656	-0.57152	-0.29319	98.94104	98.94104
3.90000	0.06759	0.76711	-0.57067	-0.29304	98.90747	98.90747
1.30000	0.06662	0.76675	-0.57106	-0.29356	99.04480	99.04480
2.90000	0.06569	0.76669	-0.57115	-0.29313	99.11194	99.11194
0.30000	0.06448	0.76681	-0.57146	-0.29258	98.97156	98.97156
1.90000	0.06371	0.76662	-0.57112	-0.29383	99.10583	99.10583
3.50000	0.06245	0.76678	-0.57155	-0.29273	98.98071	98.98071
0.90000	0.06160	0.76678	-0.57134	-0.29292	98.96545	98.96545
2.50000	0.06033	0.76586	-0.57189	-0.29398	99.25842	99.25842
4.10000	0.05948	0.76669	-0.57170	-0.29243	98.98682	98.98682
1.50000	0.05814	0.76659	-0.57173	-0.29295	99.09058	99.09058
3.10000	0.05710	0.76656	-0.57143	-0.29322	99.25232	99.25232
0.50000	0.05591	0.76632	-0.57118	-0.29450	99.27368	99.27368
2.10000	0.05496	0.76702	-0.57057	-0.29395	99.21265	99.21265
3.70000	0.05366	0.76647	-0.57115	-0.29383	99.16687	99.16687
1.10000	0.05260	0.76595	-0.57201	-0.29395	99.08447	99.08447
2.70000	0.05120	0.76580	-0.57219	-0.29362	99.28589	99.28589
0.10000	0.05042	0.76553	-0.57204	-0.29484	99.46289	99.46289
1.70000	0.04909	0.76528	-0.57323	-0.29298	99.45984	99.45984
3.30000	0.04809	0.76641	-0.57167	-0.29304	99.11194	99.11194
0.70000	0.04721	0.76571	-0.57216	-0.29438	99.16687	99.16687
2.30000	0.04613	0.76504	-0.57295	-0.29469	99.36829	99.36829
3.90000	0.04526	0.76547	-0.57231	-0.29450	99.42932	99.42932
1.30000	0.04440	0.76547	-0.57247	-0.29438	99.45068	99.45068
2.90000	0.04381	0.76568	-0.57216	-0.29395	99.19739	99.19739
0.30000	0.04275	0.76595	-0.57186	-0.29402	99.33472	99.33472
1.90000	0.04187	0.76638	-0.57140	-0.29383	99.35303	99.35303
3.50000	0.04101	0.76565	-0.57234	-0.29398	99.33777	99.33777
0.90000	0.04009	0.76611	-0.57204	-0.29319	99.28894	99.28894
2.50000	0.03911	0.76479	-0.57302	-0.29505	99.54834	99.54834
4.10000	0.03842	0.76531	-0.57271	-0.29420	99.02954	99.02954
1.50000	0.03750	0.76519	-0.57271	-0.29456	99.20654	99.20654
3.10000	0.03667	0.76467	-0.57271	-0.29542	99.48120	99.48120
0.50000	0.03590	0.76507	-0.57298	-0.29417	99.34082	99.34082
2.10000	0.03523	0.76464	-0.57320	-0.29493	99.30725	99.30725
3.70000	0.03449	0.76382	-0.57421	-0.29493	99.46899	99.46899
1.10000	0.03362	0.76717	-0.57064	-0.29322	99.13635	99.13635
2.70000	0.03278	0.76678	-0.57186	-0.29206	99.17297	99.17297
0.10000	0.03218	0.76666	-0.57189	-0.29212	99.15771	99.15771
1.70000	0.03148	0.76705	-0.57109	-0.29289	99.16992	99.16992
3.30000	0.03090	0.76675	-0.57134	-0.29319	99.21875	99.21875
0.70000	0.03016	0.76666	-0.57140	-0.29304	99.20044	99.20044
2.30000	0.02962	0.76687	-0.57125	-0.29298	99.19739	99.19739
3.90000	0.02907	0.76644	-0.57183	-0.29279	99.23706	99.23706
1.30000	0.02850	0.76656	-0.57158	-0.29325	99.29199	99.29199
2.90000	0.02797	0.76690	-0.57140	-0.29234	99.22180	99.22180
0.30000	0.02762	0.76705	-0.57128	-0.29225	99.25842	99.25842
1.90000	0.02719	0.76720	-0.57106	-0.29255	99.31946	99.31946
3.50000	0.02679	0.76659	-0.57152	-0.29313	99.40796	99.40796
0.90000	0.02646	0.76678	-0.57112	-0.29310	99.37439	99.37439
2.50000	0.02622	0.76659	-0.57146	-0.29313	99.38354	99.38354
4.10000	0.02579	0.76632	-0.57228	-0.29249	99.42322	99.42322
1.50000	0.02547	0.76653	-0.57192	-0.29246	99.42932	99.42932
3.10000	0.02528	0.76629	-0.57222	-0.29273	99.43848	99.43848
0.50000	0.02500	0.76580	-0.57247	-0.29304	99.47205	99.47205
2.10000	0.02468	0.76598	-0.57222	-0.29359	99.46289	99.46289
3.70000	0.02449	0.76611	-0.57198	-0.29347	99.44763	99.44763
1.10000	0.02433	0.76598	-0.57222	-0.29319	99.46899	99.46899
2.70000	0.02397	0.76574	-0.57241	-0.29313	99.46289	99.46289
0.10000	0.02379	0.76568	-0.57228	-0.29392	99.52698	99.52698
1.70000	0.02357	0.76565	-0.57271	-0.29334	99.36829	99.36829
3.30000	0.02339	0.76571	-0.57283	-0.29304	99.44763	99.44763
0.70000	0.02317	0.76571	-0.57198	-0.29441	99.47205	99.47205
2.30000	0.02308	0.76568	-0.57231	-0.29377	99.51172	99.51172
3.90000	0.02288	0.76623	-0.57219	-0.29301	99.46594	99.46594
1.30000	0.02278	0.76608	-0.57210	-0.29334	99.49036	99.49036
2.90000	0.02264	0.76574	-0.57241	-0.29362	99.53308	99.53308
0.30000	0.02250	0.76632	-0.57201	-0.29273	99.49951	99.49951
1.90000	0.02231	0.76592	-0.57222	-0.29328	99.51172	99.51172
3.50000	0.02231	0.76605	-0.57259	-0.29252	99.48120	99.48120
0.90000	0.02206	0.76601	-0.57247	-0.29292	99.45984	99.45984
2.50000	0.02202	0.76598	-0.57231	-0.29319	99.51782	99.51782
4.10000	0.02185	0.76635	-0.57216	-0.29273	99.54529	99.54529
1.50000	0.02181	0.76589	-0.57253	-0.29334	99.51477	99.51477
3.10000	0.02161	0.76614	-0.57149	-0.29414	99.54224	99.54224
0.50000	0.02158	0.76598	-0.57234	-0.29350	99.50867	99.50867
2.10000	0.02143	0.76605	-0.57207	-0.29337	99.56665	99.56665
3.70000	0.02129	0.76583	-0.57302	-0.29249	99.48730	99.48730
1.10000	0.02113	0.76638	-0.57192	-0.29279	99.49951	99.49951
2.70000	0.02106	0.76577	-0.57253	-0.29331	99.53003	99.53003
0.10000	0.02090	0.76565	-0.57277	-0.29350	99.50867	99.50867
1.70000	0.02082	0.76635	-0.57195	-0.29289	99.49036	99.49036
3.30000	0.02078	0.76601	-0.57201	-0.29359	99.50562	99.50562
0.70000	0.02079	0.76614	-0.57210	-0.29307	99.47510	99.47510
2.30000	0.02069	0.76626	-0.57204	-0.29325	99.50562	99.50562
3.90000	0.02069	0.76589	-0.57241	-0.29310	99.50562	99.50562
1.30000	0.02064	0.76601	-0.57225	-0.29298	99.50256	99.50256
2.90000	0.02060	0.76659	-0.57137	-0.29322	99.55139	99.55139
0.30000	0.02045	0.76605	-0.57228	-0.29310	99.53003	99.53003
1.90000	0.02039	0.76611	-0.57192	-0.29322	99.51172	99.51172
3.50000	0.02041	0.76586	-0.57201	-0.29371	99.49646	99.49646
0.90000	0.02039	0.76595	-0.57244	-0.29328	99.51477	99.51477
2.50000	0.02043	0.76638	-0.57183	-0.29304	99.48120	99.48120
4.10000	0.02035	0.76611	-0.57179	-0.29368	99.53003	99.53003
1.50000	0.02046	0.76614	-0.57216	-0.29334	99.54834	99.54834
3.10000	0.02045	0.76605	-0.57234	-0.29279	99.53003	99.53003
0.50000	0.02044	0.76598	-0.57234	-0.29298	99.49951	99.49951
2.10000	0.02046	0.76592	-0.57274	-0.29258	99.51477	99.51477
3.70000	0.02051	0.76592	-0.57256	-0.29261	99.51477	99.51477
1.10000	0.02041	0.76583	-0.57247	-0.29316	99.51477	99.51477
2.70000	0.02043	0.76598	-0.57268	-0.29273	99.54529	99.54529
0.10000	0.02045	0.76620	-0.57225	-0.29286	99.48120	99.48120
1.70000	0.02046	0.76583	-0.57259	-0.29304	99.53003	99.53003
3.30000	0.02036	0.76626	-0.57228	-0.29258	99.53003	99.53003
0.70000	0.02050	0.76623	-0.57210	-0.29249	99.54834	99.54834
2.30000	0.02044	0.76598	-0.57216	-0.29322	99.53003	99.53003
3.90000	0.02046	0.76620	-0.57195	-0.29334	99.53003	99.53003
1.30000	0.02038	0.76592	-0.57204	-0.29374	99.51172	99.51172
2.90000	0.02046	0.76635	-0.57219	-0.29276	99.51477	99.51477
0.30000	0.02040	0.76620	-0.57216	-0.29319	99.49646	99.49646
1.90000	0.02035	0.76586	-0.57256	-0.29270	99.51172	99.51172
3.50000	0.02034	0.76598	-0.57247	-0.29279	99.54529	99.54529
0.90000	0.02035	0.76659	-0.57155	-0.29298	99.53003	99.53003
2.50000	0.02033	0.76632	-0.57189	-0.29319	99.54529	99.54529
4.10000	0.02038	0.76656	-0.57195	-0.29258	99.49646	99.49646
1.50000	0.02039	0.76580	-0.57213	-0.29365	99.49646	99.49646
3.10000	0.02040	0.76632	-0.57179	-0.29362	99.44763	99.44763
0.50000	0.02041	0.76608	-0.57198	-0.29307	99.51477	99.51477
2.10000	0.02040	0.76601	-0.57173	-0.29402	99.53003	99.53003
3.70000	0.02043	0.76623	-0.57207	-0.29347	99.49951	99.49951
1.10000	0.02051	0.76620	-0.57207	-0.29322	99.53308	99.53308
2.70000	0.02049	0.76611	-0.57195	-0.29353	99.56360	99.56360
0.10000	0.02050	0.76669	-0.57155	-0.29289	99.53308	99.53308
1.70000	0.02064	0.76678	-0.57152	-0.29289	99.48730	99.48730
3.30000	0.02064	0.76672	-0.57170	-0.29237	99.40796	99.40796
0.70000	0.02067	0.76656	-0.57189	-0.29234	99.43848	99.43848
2.30000	0.02068	0.76623	-0.57204	-0.29270	99.44153	99.44153
3.90000	0.02076	0.76650	-0.57164	-0.29279	99.50562	99.50562
1.30000	0.02071	0.76644	-0.57164	-0.29340	99.52087	99.52087
2.90000	0.02072	0.76598	-0.57195	-0.29359	99.50562	99.50562
0.30000	0.02073	0.76641	-0.57158	-0.29316	99.47510	99.47510
1.90000	0.02072	0.76653	-0.57179	-0.29276	99.45679	99.45679
3.50000	0.02065	0.76659	-0.57140	-0.29340	99.52087	99.52087
0.90000	0.02071	0.76699	-0.57097	-0.29325	99.49036	99.49036
2.50000	0.02070	0.76666	-0.57173	-0.29270	99.45679	99.45679
4.10000	0.02073	0.76641	-0.57176	-0.29334	99.52087	99.52087
1.50000	0.02068	0.76653	-0.57140	-0.29319	99.56665	99.56665
3.10000	0.02079	0.76662	-0.57128	-0.29319	99.52393	99.52393
0.50000	0.02073	0.76647	-0.57198	-0.29218	99.49036	99.49036
2.10000	0.02084	0.76662	-0.57134	-0.29337	99.52393	99.52393
3.70000	0.02082	0.76653	-0.57161	-0.29310	99.49036	99.49036
1.10000	0.02090	0.76632	-0.57176	-0.29340	99.50867	99.50867
2.70000	0.02091	0.76644	-0.57183	-0.29289	99.50867	99.50867
0.10000	0.02097	0.76614	-0.57207	-0.29292	99.51172	99.51172
1.70000	0.02094	0.76669	-0.57179	-0.29258	99.49341	99.49341
3.30000	0.02101	0.76647	-0.57149	-0.29322	99.54224	99.54224
0.70000	0.02100	0.76641	-0.57152	-0.29350	99.46594	99.46594
2.30000	0.02098	0.76711	-0.57070	-0.29319	99.43237	99.43237
3.90000	0.02105	0.76659	-0.57128	-0.29337	99.48120	99.48120
1.30000	0.02117	0.76629	-0.57170	-0.29353	99.49951	99.49951
2.90000	0.02113	0.76669	-0.57097	-0.29377	99.53003	99.53003
0.30000	0.02120	0.76662	-0.57118	-0.29408	99.53308	99.53308
1.90000	0.02128	0.76690	-0.57073	-0.29374	99.53308	99.53308
3.50000	0.02134	0.76641	-0.57118	-0.29402	99.56665	99.56665
0.90000	0.02137	0.76626	-0.57173	-0.29325	99.55139	99.55139
2.50000	0.02141	0.76681	-0.57097	-0.29368	99.53613	99.53613
4.10000	0.02152	0.76650	-0.57146	-0.29322	99.55444	99.55444
1.50000	0.02157	0.76672	-0.57143	-0.29328	99.55444	99.55444
3.10000	0.02164	0.76601	-0.57216	-0.29328	99.61853	99.61853
0.50000	0.02169	0.76666	-0.57128	-0.29340	99.51172	99.51172
2.10000	0.02182	0.76647	-0.57164	-0.29334	99.49951	99.49951
3.70000	0.02183	0.76687	-0.57091	-0.29350	99.51477	99.51477
1.10000	0.02190	0.76669	-0.57125	-0.29325	99.54529	99.54529
2.70000	0.02190	0.76669	-0.57115	-0.29334	99.51782	99.51782
0.10000	0.02202	0.76675	-0.57097	-0.29395	99.50562	99.50562
1.70000	0.02203	0.76666	-0.57146	-0.29298	99.52087	99.52087
3.30000	0.02205	0.76617	-0.57204	-0.29307	99.54834	99.54834
0.70000	0.02207	0.76669	-0.57140	-0.29289	99.56665	99.56665
2.30000	0.02219	0.76672	-0.57149	-0.29307	99.52393	99.52393
3.90000	0.02203	0.76678	-0.57170	-0.29246	99.54834	99.54834
1.30000	0.02215	0.76705	-0.57073	-0.29340	99.56665	99.56665
2.90000	0.02214	0.76678	-0.57128	-0.29307	99.52087	99.52087
0.30000	0.02212	0.76699	-0.57073	-0.29347	99.50562	99.50562
1.90000	0.02201	0.76717	-0.57094	-0.29261	99.50562	99.50562
3.50000	0.02209	0.76693	-0.57109	-0.29292	99.56665	99.56665
0.90000	0.02205	0.76727	-0.57064	-0.29301	99.52087	99.52087
2.50000	0.02203	0.76659	-0.57149	-0.29301	99.57886	99.57886
4.10000	0.02210	0.76644	-0.57170	-0.29286	99.50562	99.50562
1.50000	0.02220	0.76736	-0.57070	-0.29295	99.50867	99.50867
3.10000	0.02217	0.76696	-0.57100	-0.29313	99.55139	99.55139
0.50000	0.02225	0.76705	-0.57100	-0.29307	99.50867	99.50867
2.10000	0.02236	0.76705	-0.57076	-0.29313	99.48120	99.48120
3.70000	0.02234	0.76693	-0.57082	-0.29337	99.51172	99.51172
1.10000	0.02232	0.76681	-0.57118	-0.29322	99.48120	99.48120
